I [mA]	0.100000
H [kOe]	20.096000
Time [s]	V_xx [mV]	V_xy [mV]
0.00000	-0.00300	173.48400
0.28102	-0.00100	173.48700
0.54403	-0.00300	173.48800
0.82205	-0.00300	173.48500
1.10206	-0.00500	173.48600
1.59409	-0.00100	173.49100
1.87411	-0.00200	173.48500
2.15012	-0.00300	173.48500
2.42214	-0.00400	173.48800
2.70215	-0.00500	173.49100
2.98117	-0.00300	173.48600
3.25419	0.00100	173.48200
3.53020	-0.00200	173.48800
3.80122	0.00000	173.49100
4.08123	-0.00200	173.48500
4.35425	-0.00200	173.48300
4.63027	-0.00400	173.48200
4.90128	-0.00300	173.48900
5.18130	-0.00200	173.49300
5.45431	-0.00200	173.48400
5.72933	-0.00300	173.48400
6.00134	-0.00300	173.49300
6.28136	0.00000	173.48900
6.56238	-0.00100	173.48500
6.84139	0.00100	173.48000
7.12141	-0.00100	173.48600
7.40142	-0.00100	173.49000
7.68144	-0.00100	173.48700
7.96146	0.00000	173.48000
8.24147	-0.00300	173.48100
8.52149	-0.00100	173.48800
8.80150	-0.00200	173.48500
9.08152	-0.00200	173.47800
9.36154	-0.00400	173.48100
9.64155	-0.00200	173.48800
9.92157	-0.00300	173.48700
10.20158	-0.00400	173.47900
10.48160	-0.00300	173.47700
10.76162	-0.00200	173.48500
11.04163	-0.00300	173.48700
11.32165	0.00000	173.48200
11.60166	-0.00300	173.48400
11.88168	-0.00300	173.48300
12.16170	-0.00300	173.49100
12.44171	-0.00100	173.48900
12.72173	-0.00300	173.48000
13.00174	-0.00100	173.48200
13.28176	0.00100	173.48200
13.56178	-0.00200	173.48700
13.84179	-0.00100	173.47900
14.12181	-0.00100	173.48200
14.40182	-0.00200	173.49000
14.68184	-0.00400	173.49100
14.96186	0.00000	173.48400
15.24187	0.00000	173.47900
15.52089	-0.00300	173.48200
15.79390	-0.00300	173.48800
16.06992	0.00200	173.48000
16.34193	-0.00200	173.47600
16.62195	0.00000	173.48500
16.90197	-0.00100	173.48400
17.18198	-0.00300	173.48800
17.46100	-0.00600	173.47800
17.73401	-0.00300	173.47500
18.01003	-0.00200	173.48300
18.28105	-0.00300	173.48100
18.56106	-0.00300	173.47800
18.84108	-0.00100	173.47400
19.12109	-0.00200	173.47900
19.40111	-0.00300	173.48200
19.68113	-0.00200	173.48100
19.96114	0.00000	173.47800
20.24116	-0.00300	173.47500
20.52117	-0.00100	173.48000
20.80119	-0.00200	173.47800
21.08121	-0.00300	173.47600
21.36122	-0.00200	173.47400
21.64124	-0.00300	173.47900
21.92125	-0.00100	173.48400
22.20127	-0.00200	173.47500
22.48129	-0.00400	173.47200
22.76130	-0.00500	173.47300
23.04132	-0.00300	173.47700
23.32133	-0.00300	173.47300
23.60135	0.00200	173.47400
23.88137	-0.00200	173.47600
24.16138	-0.00100	173.48400
24.44140	-0.00300	173.47500
24.72141	-0.00100	173.47300
25.00143	0.00000	173.47100
25.28145	-0.00200	173.47900
25.56146	-0.00100	173.47700
25.84148	-0.00400	173.47100
26.12149	-0.00200	173.47000
26.40151	-0.00200	173.47600
26.68153	-0.00200	173.48000
26.96154	0.00000	173.47100
27.24156	-0.00200	173.47000
27.52157	-0.00300	173.47400
27.80159	0.00100	173.47700
28.08161	-0.00200	173.47500
28.36162	-0.00200	173.47100
28.64164	-0.00300	173.47200
28.92165	-0.00500	173.47700
29.20167	-0.00300	173.47700
29.48169	-0.00200	173.46900
29.76170	-0.00100	173.47000
30.04172	-0.00200	173.47500
30.32073	-0.00100	173.46900
30.59375	-0.00300	173.46700
30.86977	-0.00100	173.46400
31.14078	-0.00300	173.46600
31.41380	-0.00100	173.47300
31.68981	-0.00300	173.47100
31.96083	-0.00500	173.46600
32.24184	-0.00100	173.46500
32.52086	-0.00400	173.47000
32.80088	-0.00300	173.47200
33.08089	-0.00300	173.46100
33.36091	-0.00300	173.46900
33.64092	-0.00300	173.47100
33.92094	-0.00200	173.46600
34.20096	-0.00200	173.46400
34.48097	-0.00200	173.46400
34.76099	-0.00200	173.46900
35.04100	-0.00300	173.46600
35.32102	-0.00400	173.46500
35.60104	-0.00300	173.46200
35.88105	-0.00200	173.46600
36.16107	-0.00200	173.47400
36.44108	-0.00400	173.46500
36.72110	-0.00300	173.45800
37.00112	0.00000	173.46000
37.28113	-0.00400	173.46700
37.56115	-0.00400	173.46300
37.84116	-0.00400	173.45900
38.12118	-0.00200	173.45600
38.40120	0.00000	173.46500
38.68121	-0.00100	173.46900
38.96123	-0.00200	173.46200
39.24124	-0.00100	173.45800
39.52126	0.00100	173.45900
39.80128	-0.00200	173.46500
40.08129	-0.00300	173.45900
40.36131	-0.00200	173.45700
40.64132	-0.00100	173.45600
40.92134	-0.00200	173.46500
41.20136	-0.00300	173.45500
41.48137	-0.00400	173.45700
41.76139	-0.00300	173.45400
42.04141	-0.00400	173.46100
42.32142	-0.00300	173.46100
42.60144	-0.00500	173.45300
42.88145	-0.00100	173.45300
43.16047	0.00000	173.45500
43.43448	-0.00100	173.45800
43.71050	-0.00200	173.45500
43.98152	-0.00500	173.45500
44.26153	-0.00300	173.45100
44.54055	-0.00400	173.46100
44.81356	-0.00100	173.45200
45.08958	0.00100	173.45400
45.36059	-0.00500	173.45500
45.64061	-0.00100	173.45800
45.92163	-0.00300	173.45400
46.20064	-0.00500	173.45100
46.48066	-0.00300	173.44500
46.76067	-0.00400	173.45200
47.04069	-0.00100	173.45200
47.32071	-0.00300	173.45000
47.60072	-0.00400	173.44800
47.88074	-0.00100	173.44900
48.16075	-0.00300	173.45900
48.44077	-0.00400	173.44900
48.72079	-0.00200	173.44600
49.00080	-0.00100	173.44500
49.28082	-0.00300	173.44700
49.56083	-0.00200	173.45000
49.84085	-0.00100	173.44700
50.12087	-0.00200	173.44800
50.40088	-0.00300	173.45400
50.68090	-0.00200	173.45300
50.96091	-0.00100	173.44600
51.24093	-0.00100	173.44300
51.52095	0.00000	173.44500
51.80096	-0.00400	173.44800
52.08098	0.00200	173.44400
52.36099	0.00000	173.43800
52.64101	-0.00100	173.44100
52.92103	-0.00400	173.44500
53.20104	-0.00400	173.44400
53.48106	-0.00400	173.44000
53.76107	-0.00400	173.44100
54.04109	-0.00200	173.44300
54.32111	-0.00200	173.44200
54.60112	-0.00300	173.43600
54.88114	-0.00500	173.43600
55.16116	-0.00200	173.44100
55.44117	-0.00300	173.44200
55.72119	-0.00200	173.43600
56.00120	-0.00300	173.43500
56.28122	-0.00200	173.43700
56.56124	-0.00200	173.44500
56.84025	-0.00300	173.43700
57.11427	-0.00300	173.43600
57.39028	-0.00300	173.43400
57.66130	0.00000	173.44400
57.94031	-0.00300	173.43700
58.21433	-0.00200	173.43400
58.48935	-0.00500	173.43000
58.76036	-0.00400	173.43600
59.03338	-0.00300	173.44000
59.30939	-0.00400	173.43300
59.58141	-0.00200	173.43000
59.86042	-0.00500	173.43300
60.14044	-0.00200	173.43800
60.42046	-0.00500	173.43400
60.70047	-0.00300	173.42900
60.98049	-0.00300	173.43100
61.26050	-0.00500	173.43300
61.54052	0.00100	173.43100
61.82054	-0.00500	173.42500
62.10055	-0.00300	173.42900
62.38057	-0.00400	173.43200
62.66058	-0.00100	173.43600
62.94060	-0.00500	173.42900
63.22062	0.00100	173.42200
63.50063	-0.00100	173.42500
63.78065	-0.00300	173.43200
64.06066	-0.00200	173.42800
64.34068	-0.00100	173.42200
64.62070	-0.00300	173.42500
64.90071	-0.00100	173.43200
65.18073	-0.00200	173.42900
65.46074	-0.00400	173.42500
65.74076	-0.00500	173.42400
66.02078	-0.00500	173.42900
66.30079	0.00000	173.42700
66.58081	-0.00400	173.42000
66.86082	-0.00100	173.42300
67.14084	-0.00300	173.42300
67.42086	-0.00500	173.42500
67.70087	-0.00200	173.42200
67.98089	-0.00300	173.41700
68.26090	-0.00400	173.42300
68.54092	-0.00200	173.42100
68.82094	-0.00400	173.42500
69.10095	-0.00100	173.42100
69.38097	-0.00300	173.42000
69.66098	-0.00400	173.42000
69.94100	0.00100	173.41700
70.22002	-0.00200	173.41600
70.49403	-0.00300	173.41900
70.76905	-0.00500	173.41800
71.04106	-0.00300	173.41800
71.32108	-0.00100	173.41700
71.60010	0.00000	173.41300
71.87411	-0.00100	173.41900
72.14913	-0.00500	173.42400
72.42014	-0.00300	173.41700
72.69416	-0.00100	173.41000
72.96917	-0.00200	173.41600
73.24019	-0.00300	173.41700
73.52021	0.00100	173.41200
73.80022	-0.00400	173.40700
74.08024	-0.00400	173.41400
74.36025	-0.00300	173.41500
74.64027	-0.00500	173.42000
74.92029	-0.00200	173.41100
75.20030	-0.00400	173.41200
75.48032	-0.00100	173.40800
75.76033	-0.00200	173.41000
76.04035	-0.00200	173.40900
76.32036	-0.00100	173.40600
76.60038	0.00400	173.40600
76.88040	-0.00100	173.41000
77.16041	0.00000	173.41300
77.44043	-0.00500	173.40600
77.72045	-0.00400	173.40400
78.00046	-0.00300	173.40600
78.28048	-0.00200	173.40700
78.56049	-0.00100	173.40200
78.84051	-0.00100	173.40000
79.12053	0.00000	173.40300
79.40054	0.00100	173.41100
79.68056	-0.00300	173.40600
79.96057	-0.00100	173.40200
80.24059	-0.00100	173.40000
80.52061	-0.00300	173.41000
80.80062	-0.00200	173.40400
81.08064	-0.00100	173.40200
81.36065	-0.00100	173.40200
81.64067	-0.00100	173.40200
81.92069	-0.00300	173.40500
82.20070	-0.00200	173.39800
82.48072	-0.00400	173.39700
82.76073	-0.00400	173.40500
83.04075	-0.00500	173.40300
83.32077	0.00100	173.40100
83.60078	-0.00200	173.39600
83.87980	-0.00100	173.39900
84.15381	-0.00300	173.40500
84.42883	-0.00500	173.40000
84.69984	-0.00200	173.39600
84.97386	-0.00300	173.39400
85.24888	0.00200	173.40000
85.51989	-0.00200	173.40100
85.79391	-0.00200	173.39900
86.06892	-0.00200	173.39300
86.33994	-0.00400	173.39600
86.61395	-0.00500	173.40000
86.88897	-0.00500	173.40000
87.15999	0.00200	173.38900
87.44000	-0.00200	173.39200
87.72002	-0.00100	173.39400
88.00003	-0.00400	173.39500
88.28005	-0.00200	173.39700
88.56006	-0.00400	173.38500
88.84008	-0.00500	173.39300
89.12010	-0.00400	173.39400
89.40011	-0.00200	173.39100
89.68013	-0.00400	173.39000
89.96015	-0.00200	173.39400
90.24016	-0.00300	173.38900
90.52018	-0.00500	173.38600
90.80019	0.00000	173.38200
91.08021	-0.00200	173.38800
91.36023	-0.00100	173.39500
91.64024	-0.00200	173.38400
91.92026	-0.00300	173.38300
92.20027	-0.00200	173.38900
92.48029	-0.00100	173.38800
92.76031	-0.00400	173.38900
93.04032	-0.00400	173.38700
93.32034	-0.00300	173.38400
93.60035	-0.00400	173.38800
93.88037	-0.00200	173.38900
94.16039	-0.00300	173.38100
94.44040	-0.00400	173.37700
94.72042	-0.00300	173.38000
95.00043	-0.00200	173.38200
95.28045	0.00000	173.38500
95.56047	-0.00100	173.38200
95.84048	-0.00400	173.38800
96.12050	-0.00400	173.38400
96.40051	-0.00500	173.38100
96.68053	-0.00500	173.38100
96.96055	-0.00300	173.37900
97.24056	-0.00100	173.38200
97.51958	-0.00400	173.38200
97.79359	0.00000	173.38000
98.06861	-0.00400	173.37400
98.34062	-0.00200	173.38300
98.62064	-0.00300	173.38600
98.90066	-0.00400	173.37700
99.18067	-0.00400	173.37600
99.46069	-0.00200	173.38200
99.73971	-0.00300	173.38100
100.01372	-0.00400	173.37400
100.28874	-0.00400	173.37400
100.55975	-0.00100	173.37200
100.83377	-0.00100	173.37800
101.10878	-0.00200	173.37600
101.37980	-0.00500	173.37900
101.65981	-0.00300	173.37500
101.93983	0.00000	173.37300
102.21985	-0.00200	173.37700
102.49986	-0.00100	173.37100
102.77988	-0.00200	173.36900
103.05989	-0.00300	173.37500
103.33991	-0.00400	173.37700
103.61993	-0.00300	173.37100
103.89994	-0.00500	173.37300
104.17996	-0.00500	173.37300
104.45997	-0.00100	173.37700
104.73999	0.00000	173.37900
105.02001	0.00000	173.37100
105.30002	-0.00300	173.37200
105.58004	-0.00500	173.37200
105.86005	-0.00100	173.37200
106.14007	-0.00100	173.37200
106.42009	-0.00200	173.36600
106.70010	-0.00300	173.36800
106.98012	-0.00200	173.37600
107.26014	-0.00300	173.37200
107.54015	-0.00200	173.36800
107.82017	-0.00200	173.37100
108.10018	-0.00100	173.37500
108.38020	-0.00500	173.37100
108.66022	-0.00400	173.36400
108.94023	-0.00100	173.36500
109.22025	-0.00100	173.36600
109.50026	-0.00100	173.36600
109.78028	-0.00300	173.36300
110.06030	0.00000	173.36200
110.34031	-0.00400	173.36700
110.62033	-0.00300	173.37300
110.90034	-0.00300	173.36400
111.18036	-0.00500	173.36300
111.46038	-0.00100	173.36400
111.73939	-0.00200	173.36800
112.01441	-0.00200	173.36800
112.28942	-0.00500	173.36300
112.56044	-0.00200	173.36500
112.83945	-0.00200	173.36200
113.11447	-0.00300	173.36500
113.38849	-0.00300	173.36500
113.65950	-0.00400	173.35900
113.93452	0.00000	173.36500
114.20953	0.00000	173.36600
114.47955	-0.00500	173.36300
114.75356	0.00000	173.35500
115.02858	-0.00500	173.35600
115.30059	-0.00400	173.36000
115.57961	-0.00100	173.36100
115.85963	-0.00300	173.35900
116.13964	-0.00300	173.36100
116.41966	-0.00200	173.36400
116.69967	-0.00100	173.36300
116.97969	-0.00400	173.35800
117.25971	-0.00300	173.35700
117.53972	-0.00200	173.35900
117.81974	-0.00300	173.36500
118.09975	-0.00400	173.36300
118.37977	-0.00400	173.35600
118.65979	-0.00300	173.36000
118.93980	-0.00200	173.36800
119.21982	-0.00200	173.35700
119.49984	-0.00300	173.35900
119.77985	-0.00200	173.35500
120.05987	-0.00400	173.36100
120.33988	-0.00400	173.35400
120.61990	-0.00500	173.35400
120.89992	-0.00200	173.35400
121.17993	-0.00100	173.35500
121.45995	0.00000	173.36000
121.73996	-0.00100	173.35500
122.01998	-0.00200	173.35100
122.30000	-0.00400	173.35700
122.58001	-0.00400	173.35800
122.86003	-0.00400	173.35300
123.14004	-0.00100	173.35000
123.42006	-0.00200	173.35100
123.70008	-0.00200	173.35900
123.98009	-0.00300	173.35600
124.26011	-0.00500	173.35400
124.54012	-0.00400	173.34700
124.82014	-0.00200	173.35500
125.10016	-0.00400	173.35700
125.38017	-0.00500	173.35600
125.65919	-0.00100	173.35400
125.93420	-0.00100	173.35500
126.20822	-0.00600	173.35700
126.47923	0.00000	173.35200
126.75425	-0.00400	173.35400
127.02927	-0.00300	173.35600
127.29928	-0.00400	173.35700
127.57430	-0.00200	173.35800
127.84931	-0.00500	173.35300
128.12033	-0.00500	173.35400
128.39934	-0.00200	173.35400
128.67936	-0.00200	173.35100
128.95938	-0.00100	173.34900
129.23939	0.00000	173.34800
129.52041	-0.00400	173.35000
129.79942	-0.00500	173.36000
130.07944	-0.00500	173.35300
130.35946	-0.00100	173.35000
130.63947	-0.00500	173.34700
130.91949	-0.00100	173.35100
131.19950	-0.00500	173.35300
131.47952	-0.00500	173.34900
131.75954	-0.00100	173.34600
132.03955	-0.00300	173.35400
132.31957	0.00000	173.35200
132.59958	-0.00500	173.35000
132.87960	-0.00500	173.34900
133.15962	-0.00400	173.35100
133.43963	-0.00300	173.35400
133.71965	-0.00400	173.34500
133.99966	-0.00100	173.35000
134.27968	-0.00200	173.34900
134.55970	-0.00100	173.35600
134.83971	-0.00300	173.34800
135.11973	-0.00200	173.34200
135.39974	-0.00500	173.34600
135.67976	-0.00200	173.35100
135.95978	-0.00200	173.34800
136.23979	0.00600	173.34700
136.51981	-0.00300	173.34400
136.79983	-0.00200	173.35100
137.07984	-0.00200	173.35100
137.35986	-0.00200	173.34800
137.63987	-0.00100	173.34200
137.91989	-0.00200	173.35200
138.19990	-0.00500	173.35700
138.47992	-0.00500	173.35000
138.75994	-0.00100	173.34500
139.03995	-0.00500	173.34900
139.31997	-0.00200	173.34900
139.59999	0.00000	173.35300
139.88000	-0.00300	173.35100
140.15902	-0.00300	173.34800
140.43403	-0.00400	173.34900
140.70905	-0.00600	173.35300
140.98006	-0.00300	173.34600
141.26008	-0.00300	173.34500
141.53910	-0.00400	173.35100
141.81411	-0.00200	173.35400
142.08813	-0.00300	173.34800
142.36014	-0.00400	173.34400
142.63916	-0.00100	173.34700
142.91917	-0.00300	173.35500
143.19919	-0.00300	173.34700
143.47921	0.00000	173.34200
143.75922	-0.00100	173.34600
144.03924	-0.00200	173.35200
144.31925	-0.00500	173.34800
144.59927	-0.00500	173.34400
144.87929	-0.00500	173.34300
145.15930	0.00000	173.34600
145.43932	-0.00100	173.35600
145.71933	-0.00200	173.34200
145.99935	-0.00400	173.34500
146.27937	-0.00200	173.34800
146.55938	-0.00300	173.35200
146.83940	-0.00200	173.34900
147.11941	-0.00200	173.34700
147.39943	-0.00300	173.34900
147.67945	-0.00300	173.35000
147.95946	-0.00400	173.35300
148.23948	-0.00300	173.34600
148.51949	-0.00300	173.34700
148.79951	-0.00400	173.35000
149.07953	-0.00200	173.35200
149.35954	-0.00400	173.34800
149.63956	-0.00400	173.34900
149.91958	-0.00400	173.34900
150.19959	-0.00100	173.35400
150.47961	0.00000	173.34600
150.75962	-0.00400	173.34700
151.03964	0.00000	173.34400
151.31966	-0.00300	173.35300
151.59967	-0.00300	173.35200
151.87969	-0.00300	173.34700
152.15970	-0.00400	173.34300
152.43972	-0.00400	173.35100
152.71974	-0.00500	173.35400
152.99975	-0.00300	173.34700
153.27977	0.00000	173.34800
153.55878	-0.00200	173.35000
153.83380	-0.00300	173.35400
154.10881	-0.00500	173.34700
154.37983	0.00000	173.34600
154.65885	-0.00400	173.34600
154.93386	-0.00500	173.35100
155.20888	-0.00300	173.34600
155.47989	-0.00500	173.34800
155.75991	-0.00200	173.34900
156.03893	-0.00300	173.34800
156.31394	-0.00300	173.34800
156.58796	-0.00300	173.34700
156.85897	-0.00200	173.34800
157.13999	-0.00500	173.35000
157.41900	-0.00400	173.35200
157.69902	-0.00300	173.34200
157.97904	-0.00500	173.34300
158.25905	-0.00400	173.35200
158.53907	-0.00100	173.35400
158.81908	-0.00300	173.35000
159.09910	-0.00500	173.34500
159.37912	-0.00400	173.35100
159.65913	-0.00400	173.35300
159.93915	-0.00300	173.35100
160.21916	-0.00100	173.34600
160.49918	-0.00200	173.34500
160.77920	-0.00200	173.34500
161.05921	-0.00200	173.34900
161.33923	-0.00200	173.34700
161.61924	-0.00200	173.34900
161.89926	-0.00300	173.34800
162.17928	-0.00300	173.35400
162.45929	-0.00500	173.34900
162.73931	-0.00300	173.34500
163.01932	-0.00500	173.35200
163.29934	0.00000	173.35600
163.57936	-0.00500	173.35500
163.85937	-0.00400	173.34900
164.13939	-0.00400	173.34800
164.41940	-0.00200	173.35300
164.69942	-0.00400	173.35700
164.97944	-0.00300	173.35200
165.25945	-0.00300	173.34600
165.53947	-0.00600	173.35200
165.81948	-0.00400	173.36400
166.09950	-0.00500	173.35200
166.37952	-0.00300	173.34600
166.65953	0.00400	173.35400
166.93955	-0.00400	173.36000
167.21956	-0.00500	173.35000
167.49958	-0.00300	173.35300
167.77960	-0.00400	173.35500
168.05861	-0.00200	173.35200
168.33363	-0.00300	173.35400
168.60864	-0.00300	173.35200
168.87966	-0.00400	173.35300
169.15868	-0.00400	173.36200
169.43369	-0.00500	173.36000
169.70871	-0.00300	173.35700
169.97872	-0.00200	173.35500
170.25974	-0.00400	173.35600
170.53975	-0.00300	173.36000
170.81977	-0.00500	173.35900
171.09979	-0.00500	173.35500
171.37880	-0.00500	173.35700
171.65882	-0.00300	173.35800
171.93883	-0.00300	173.35900
172.21885	-0.00100	173.35000
172.49887	-0.00300	173.35500
172.77888	-0.00500	173.35700
173.05890	0.00000	173.35900
173.33891	-0.00300	173.35700
173.61893	0.00000	173.35600
173.89895	-0.00400	173.36000
174.17896	-0.00200	173.35900
174.45898	0.00000	173.36000
174.73899	-0.00300	173.35300
175.01901	-0.00400	173.35900
175.29903	-0.00500	173.36700
175.57904	-0.00500	173.36200
175.85906	-0.00100	173.35800
176.13907	-0.00500	173.35600
176.41909	-0.00400	173.36500
176.69911	-0.00400	173.36200
176.97912	-0.00300	173.36000
177.25914	-0.00500	173.35800
177.53915	-0.00300	173.36600
177.81917	-0.00500	173.36600
178.09919	-0.00400	173.36300
178.37920	-0.00600	173.35900
178.65922	-0.00300	173.36200
178.93923	-0.00400	173.36800
179.21925	0.00200	173.36400
179.49927	-0.00600	173.35900
179.77928	-0.00300	173.36600
180.05930	-0.00500	173.36900
180.33931	-0.00500	173.36300
180.61933	-0.00600	173.36500
180.89935	-0.00400	173.35900
181.17936	-0.00300	173.36700
181.45838	-0.00400	173.36600
181.73439	-0.00200	173.36500
182.00841	-0.00300	173.36100
182.27843	-0.00100	173.36600
182.55344	-0.00300	173.36600
182.82846	-0.00400	173.37300
183.09847	-0.00500	173.36300
183.37349	-0.00400	173.36400
183.64850	-0.00500	173.36900
183.91852	-0.00500	173.36700
184.19954	-0.00300	173.36400
184.47955	-0.00500	173.36300
184.75957	-0.00100	173.36700
185.03858	-0.00500	173.37400
185.31860	-0.00300	173.37200
185.59862	-0.00200	173.36700
185.87863	-0.00200	173.37400
186.15865	-0.00400	173.37200
186.43866	-0.00400	173.37300
186.71868	-0.00500	173.36900
186.99870	-0.00100	173.36800
187.27871	-0.00300	173.37600
187.55873	-0.00200	173.37800
187.83874	-0.00200	173.37000
188.11876	-0.00500	173.37400
188.39878	-0.00500	173.37600
188.67879	-0.00300	173.37600
188.95881	-0.00300	173.37300
189.23882	-0.00400	173.37000
189.51884	-0.00100	173.37400
189.79886	-0.00400	173.38100
190.07887	-0.00500	173.37800
190.35889	-0.00300	173.36900
190.63890	-0.00500	173.37700
190.91892	-0.00300	173.38000
191.19894	-0.00500	173.37700
191.47895	-0.00500	173.37500
191.75897	-0.00400	173.37600
192.03898	-0.00200	173.38100
192.31900	-0.00400	173.38000
192.59902	-0.00300	173.37600
192.87903	-0.00400	173.37700
193.15905	-0.00300	173.37500
193.43906	-0.00500	173.38200
193.71908	-0.00500	173.37900
193.99910	-0.00500	173.37800
194.27911	-0.00300	173.38200
194.55913	-0.00100	173.38200
194.83914	-0.00500	173.37900
195.11916	-0.00400	173.38000
195.39818	-0.00300	173.37700
195.67419	-0.00200	173.38400
195.94821	-0.00400	173.38600
196.21922	-0.00500	173.37900
196.49924	-0.00100	173.38100
196.77926	-0.00400	173.38700
197.05927	-0.00100	173.38600
197.33929	-0.00400	173.38200
197.61930	-0.00300	173.37700
197.89932	-0.00400	173.38100
198.17934	-0.00500	173.38800
198.45835	-0.00400	173.38600
198.73837	-0.00500	173.38200
199.01838	-0.00200	173.38800
199.29840	-0.00500	173.38600
199.57842	-0.00400	173.38900
199.85843	-0.00100	173.38200
200.13845	-0.00400	173.39000
200.41846	-0.00300	173.38800
200.69848	-0.00400	173.39400
200.97850	-0.00500	173.38400
201.25851	-0.00100	173.38200
201.53853	-0.00300	173.38700
201.81854	-0.00400	173.39900
202.09856	-0.00300	173.39100
202.37858	-0.00200	173.38400
202.65859	-0.00400	173.38900
202.93861	-0.00500	173.39200
203.21862	-0.00500	173.39300
203.49864	-0.00300	173.39100
203.77866	-0.00500	173.38900
204.05867	-0.00200	173.39200
204.33869	-0.00400	173.39100
204.61870	-0.00500	173.39100
204.89872	-0.00300	173.39200
205.17874	-0.00400	173.39600
205.45875	-0.00200	173.40100
205.73877	-0.00300	173.39100
206.01878	-0.00400	173.38900
206.29880	-0.00500	173.39600
206.57882	-0.00200	173.39900
206.85783	-0.00300	173.39700
207.13385	-0.00300	173.39100
207.40786	-0.00500	173.39700
207.67888	-0.00200	173.39700
207.95889	0.00000	173.39800
208.23891	-0.00400	173.39100
208.51893	-0.00600	173.39500
208.79894	-0.00500	173.40500
209.07896	-0.00400	173.40200
209.35797	-0.00500	173.39900
209.63399	-0.00500	173.39700
209.90801	-0.00500	173.40300
210.17802	-0.00500	173.40900
210.45404	-0.00100	173.39700
210.72805	-0.00200	173.39800
210.99807	-0.00300	173.39900
211.27408	-0.00500	173.40400
211.54810	0.00000	173.40100
211.81812	-0.00300	173.40500
212.09813	-0.00300	173.40300
212.37915	-0.00400	173.40700
212.65816	-0.00500	173.40900
212.93818	0.00000	173.41000
213.21820	-0.00500	173.40000
213.49821	-0.00400	173.40300
213.77823	-0.00200	173.41200
214.05824	-0.00500	173.40500
214.33826	-0.00300	173.40200
214.61828	-0.00300	173.40600
214.89829	-0.00400	173.41200
215.17831	-0.00500	173.40900
215.45832	-0.00200	173.40400
215.73834	-0.00400	173.40600
216.01836	-0.00300	173.40700
216.29837	-0.00100	173.41100
216.57839	-0.00100	173.41100
216.85840	-0.00200	173.40700
217.13842	-0.00500	173.40900
217.41844	-0.00500	173.41300
217.69845	-0.00300	173.41100
217.97847	-0.00400	173.41100
218.25848	-0.00400	173.41400
218.53850	-0.00200	173.41700
218.81852	-0.00300	173.41300
219.09853	-0.00400	173.41300
219.37855	-0.00500	173.41700
219.65856	-0.00500	173.41500
219.93858	-0.00300	173.42000
220.21860	-0.00300	173.41500
220.49861	-0.00500	173.41500
220.77863	-0.00500	173.41500
221.05864	-0.00200	173.41800
221.33866	-0.00400	173.41500
221.61868	-0.00200	173.41600
221.89869	-0.00400	173.41600
222.17871	0.00000	173.42300
222.45772	-0.00400	173.41600
222.73374	-0.00200	173.41100
223.00776	-0.00500	173.41500
223.27777	-0.00300	173.42100
223.55379	-0.00500	173.42000
223.82780	-0.00300	173.41900
224.09882	-0.00500	173.41800
224.37783	-0.00300	173.42200
224.65385	-0.00200	173.42700
224.92787	-0.00100	173.42100
225.19888	-0.00500	173.41600
225.47890	-0.00500	173.42300
225.75891	-0.00100	173.42600
226.03793	-0.00500	173.42800
226.31795	-0.00400	173.41900
226.59796	0.00000	173.41700
226.87798	-0.00300	173.42600
227.15799	-0.00400	173.42700
227.43801	-0.00300	173.42300
227.71803	-0.00400	173.42300
227.99804	-0.00500	173.42600
228.27806	-0.00400	173.43200
228.55807	-0.00500	173.42600
228.83809	-0.00400	173.42300
229.11810	-0.00300	173.42500
229.39812	-0.00500	173.43300
229.67814	-0.00500	173.43000
229.95815	-0.00400	173.42800
230.23817	-0.00500	173.43100
230.51819	-0.00500	173.43300
230.79820	-0.00400	173.43300
231.07822	-0.00500	173.43000
231.35823	-0.00500	173.43100
231.63825	-0.00300	173.43300
231.91826	0.00000	173.43500
232.19828	-0.00400	173.42800
232.47830	-0.00200	173.43100
232.75831	-0.00700	173.43100
233.03833	-0.00400	173.43500
233.31835	-0.00400	173.43300
233.59836	-0.00500	173.43200
233.87838	-0.00300	173.43300
234.15839	-0.00400	173.43800
234.43841	-0.00400	173.43800
234.71842	0.00000	173.43200
234.99844	-0.00300	173.43600
235.27846	-0.00500	173.43900
235.55847	-0.00400	173.44100
235.83849	-0.00500	173.43400
236.11851	-0.00600	173.43700
236.39852	-0.00200	173.44200
236.67854	-0.00300	173.44400
236.95855	-0.00200	173.43800
237.23857	-0.00400	173.43500
237.51859	-0.00400	173.44100
237.79860	0.00000	173.44400
238.07862	-0.00200	173.44100
238.35763	-0.00400	173.43500
238.63365	-0.00200	173.43800
238.90767	-0.00300	173.44200
239.17868	-0.00500	173.44600
239.45770	-0.00400	173.44200
239.73771	-0.00400	173.44000
240.01773	-0.00300	173.44300
240.29774	-0.00500	173.45000
240.57576	-0.00500	173.43900
240.84778	-0.00500	173.44500
241.11879	-0.00100	173.44400
241.39781	-0.00500	173.45100
241.67882	-0.00500	173.44800
241.95584	-0.00600	173.44000
242.22785	-0.00500	173.44200
242.49587	-0.00200	173.44600
242.76789	-0.00200	173.44700
243.03790	-0.00300	173.44700
243.31592	-0.00400	173.44700
243.58793	-0.00500	173.44700
243.85595	-0.00500	173.45200
244.12696	-0.00500	173.44800
244.39598	-0.00500	173.44200
244.66699	-0.00400	173.44400
244.93601	-0.00500	173.45000
245.20703	-0.00500	173.45300
245.47804	-0.00400	173.44900
245.75806	-0.00400	173.45200
246.03807	-0.00100	173.45100
246.31609	-0.00500	173.45500
246.58810	-0.00400	173.45000
246.85812	-0.00400	173.45200
247.13614	-0.00100	173.45200
247.40715	-0.00700	173.45600
247.67817	-0.00500	173.45300
247.95818	-0.00100	173.44900
248.23620	-0.00500	173.45600
248.51421	0.00000	173.45600
248.78723	-0.00300	173.45600
249.05825	-0.00200	173.45700
249.33626	-0.00500	173.44900
249.61428	-0.00500	173.45700
249.88729	-0.00500	173.45800
250.15831	-0.00400	173.45200
250.43832	-0.00400	173.45300
250.71634	-0.00500	173.45200
250.99336	-0.00500	173.46000
251.26537	-0.00500	173.45900
251.53839	-0.00200	173.45100
251.81840	-0.00400	173.45700
252.09842	-0.00100	173.46300
252.37644	-0.00300	173.46200
252.65345	-0.00400	173.45700
252.92747	-0.00500	173.45800
253.19648	-0.00500	173.46000
253.47350	-0.00400	173.46100
253.74751	-0.00400	173.45800
254.01553	-0.00400	173.45600
254.28754	-0.00400	173.46400
254.55556	0.00000	173.46400
254.82558	-0.00500	173.45900
255.09559	-0.00200	173.46100
255.36761	-0.00400	173.46000
255.63762	-0.00200	173.46600
255.91764	0.00000	173.46200
256.19765	-0.00500	173.45900
256.47767	-0.00500	173.46300
256.75769	-0.00300	173.46300
257.03770	0.00000	173.46600
257.31772	-0.00400	173.46200
257.59573	-0.00300	173.46500
257.86775	-0.00500	173.46900
258.13776	-0.00500	173.47000
258.41578	-0.00100	173.46800
258.68780	-0.00400	173.46600
258.95781	-0.00300	173.46100
259.23583	-0.00200	173.46900
259.50484	-0.00300	173.46900
259.77586	-0.00500	173.46700
260.04487	-0.00400	173.46800
260.31589	-0.00300	173.46800
260.58691	-0.00500	173.47100
260.85792	-0.00400	173.47500
261.13594	-0.00500	173.46900
261.40495	-0.00100	173.46600
261.67597	-0.00300	173.47200
261.94498	-0.00500	173.46800
262.21600	-0.00400	173.46600
262.48501	-0.00500	173.47200
262.75603	-0.00500	173.46900
263.02704	-0.00500	173.47100
263.29606	-0.00200	173.47400
263.56508	-0.00300	173.46900
263.83609	-0.00500	173.47200
264.11311	-0.00600	173.47800
264.38512	-0.00400	173.47300
264.65614	-0.00500	173.47300
264.93315	-0.00500	173.47100
265.20517	-0.00200	173.47500
265.47618	-0.00400	173.47300
265.75420	-0.00400	173.47100
266.02522	-0.00400	173.46800
266.29623	-0.00400	173.47400
266.57425	-0.00300	173.48200
266.84726	-0.00500	173.47000
267.11628	-0.00200	173.47400
267.39429	-0.00300	173.47100
267.66731	-0.00400	173.47700
267.93633	-0.00300	173.47900
268.21334	-0.00400	173.47100
268.48736	-0.00100	173.47100
268.75637	-0.00400	173.47400
269.03339	-0.00300	173.48100
269.30740	-0.00400	173.47500
269.57642	-0.00600	173.47100
269.85343	-0.00200	173.48000
270.12745	-0.00500	173.48000
270.39547	-0.00200	173.47900
270.66748	-0.00500	173.47600
270.93550	-0.00500	173.47200
271.20551	-0.00300	173.48000
271.47753	-0.00200	173.48000
271.75554	-0.00500	173.47600
272.02756	-0.00400	173.47700
272.29557	-0.00400	173.48100
272.56759	-0.00200	173.48100
272.83561	-0.00300	173.48100
273.10762	-0.00400	173.47600
273.37564	-0.00200	173.47700
273.64765	-0.00200	173.48200
273.91567	-0.00100	173.47900
274.18768	-0.00200	173.47900
274.45570	-0.00500	173.47300
274.72771	-0.00200	173.47700
274.99573	-0.00400	173.48400
275.26474	-0.00300	173.47900
275.53576	-0.00500	173.48000
275.80478	-0.00200	173.48200
276.07579	0.00000	173.48300
276.34481	-0.00300	173.47800
276.61582	-0.00300	173.48000
276.88684	-0.00400	173.47700
277.15585	-0.00500	173.47900
277.42487	-0.00500	173.48500
277.69588	-0.00200	173.48400
277.96490	-0.00500	173.47600
278.23591	-0.00500	173.48100
278.50693	-0.00400	173.48100
278.77595	-0.00400	173.48400
279.04496	-0.00400	173.47500
279.31598	-0.00100	173.48000
279.58499	-0.00400	173.48400
279.85601	-0.00400	173.48300
280.12502	-0.00400	173.48200
280.39604	0.00000	173.47700
280.66505	-0.00100	173.48100
280.93607	-0.00500	173.48700
281.20708	-0.00500	173.48000
281.47710	-0.00500	173.48100
281.75712	-0.00400	173.48500
282.03713	-0.00300	173.48500
282.31615	-0.00400	173.48400
282.59416	-0.00400	173.48100
282.86518	-0.00500	173.48000
283.13619	-0.00500	173.48600
283.41321	-0.00500	173.48900
283.68523	-0.00300	173.48100
283.95724	-0.00400	173.47900
284.23626	-0.00100	173.48300
284.51327	-0.00400	173.48700
284.78529	0.00000	173.48500
285.05630	-0.00400	173.48200
285.33332	-0.00700	173.48000
285.60534	-0.00500	173.48800
285.87635	-0.00300	173.48400
286.15337	-0.00400	173.48400
286.42538	-0.00500	173.47900
286.69640	-0.00200	173.48000
286.97341	-0.00300	173.48800
287.24543	-0.00200	173.48800
287.51645	-0.00400	173.48600
287.79346	-0.00100	173.48500
288.06448	-0.00600	173.48900
288.33549	-0.00500	173.48400
288.60451	-0.00300	173.47900
288.87752	-0.00500	173.48400
289.15554	-0.00400	173.48200
289.42455	-0.00200	173.49200
289.69757	-0.00300	173.48000
289.97559	-0.00500	173.48400
290.24460	-0.00600	173.48200
290.51762	-0.00500	173.48600
290.79763	-0.00400	173.48500
291.07765	-0.00200	173.48400
291.35667	-0.00400	173.48500
291.63368	-0.00100	173.48500
291.90470	-0.00200	173.49100
292.17771	-0.00500	173.48000
292.45773	-0.00100	173.48300
292.73774	-0.00500	173.48900
293.01776	-0.00300	173.49200
293.29678	-0.00300	173.48500
293.57379	-0.00600	173.48400
293.84481	-0.00100	173.48500
294.11682	-0.00300	173.49100
294.39384	-0.00300	173.48800
294.67485	-0.00500	173.48200
294.94487	-0.00500	173.48300
295.21689	-0.00500	173.48900
295.49690	-0.00400	173.49300
295.77492	-0.00500	173.48200
296.04493	-0.00500	173.48600
296.31695	-0.00300	173.48700
296.59696	-0.00500	173.49200
296.87598	-0.00300	173.48800
297.14500	-0.00200	173.48500
297.41701	-0.00500	173.48000
297.69703	-0.00200	173.48900
297.97504	-0.00300	173.48700
298.24506	-0.00500	173.48800
298.51707	-0.00400	173.48200
298.79709	-0.00300	173.48900
299.07711	-0.00500	173.49100
299.35712	-0.00300	173.48800
299.63714	-0.00300	173.48600
299.91615	-0.00100	173.48900
300.19317	-0.00300	173.49500
300.46519	-0.00300	173.48600
300.73720	-0.00100	173.48300
301.01722	-0.00300	173.48700
301.29723	0.00100	173.48900
301.57725	-0.00400	173.49000
301.85726	-0.00300	173.48200
302.13728	-0.00300	173.48100
302.41730	-0.00500	173.49100
302.69731	-0.00500	173.49100
302.97533	-0.00500	173.48600
303.24535	-0.00200	173.48300
303.51736	-0.00200	173.48300
303.79538	-0.00400	173.48500
304.06439	-0.00500	173.48600
304.33741	-0.00300	173.48400
304.61742	-0.00300	173.48100
304.89744	-0.00400	173.49000
305.17746	-0.00500	173.48400
305.45547	-0.00400	173.48400
305.72449	-0.00700	173.48600
305.99750	-0.00400	173.48900
306.27752	-0.00200	173.49400
306.55753	-0.00300	173.48200
306.83755	-0.00400	173.48300
307.11757	-0.00400	173.48300
307.39758	-0.00100	173.48800
307.67760	-0.00500	173.48600
307.95761	-0.00400	173.48000
308.23763	-0.00100	173.48200
308.51765	-0.00300	173.48400
308.79766	-0.00300	173.48700
309.07768	-0.00300	173.47800
309.35669	-0.00500	173.48300
309.63671	-0.00400	173.48400
309.91673	-0.00400	173.48700
310.19474	-0.00400	173.48400
310.46476	-0.00400	173.48200
310.73677	-0.00500	173.48200
311.01479	-0.00500	173.48700
311.28480	-0.00300	173.48300
311.55482	-0.00200	173.47700
311.82684	-0.00500	173.48000
312.09685	-0.00500	173.48900
312.37687	-0.00300	173.48300
312.65488	-0.00400	173.47900
312.92490	-0.00400	173.48200
313.19491	-0.00500	173.48200
313.46493	-0.00200	173.48800
313.73494	-0.00100	173.47900
314.00596	0.00000	173.47300
314.27498	0.00000	173.48200
314.54499	-0.00500	173.48600
314.81501	-0.00400	173.48400
315.08502	-0.00500	173.48200
315.35504	-0.00100	173.47900
315.62405	-0.00400	173.48500
315.89507	-0.00500	173.48600
316.16408	-0.00200	173.47900
316.43510	-0.00200	173.47600
316.70411	-0.00500	173.47900
316.97513	-0.00300	173.48500
317.24414	-0.00300	173.48200
317.51516	-0.00300	173.47800
317.78418	-0.00100	173.47900
318.05519	-0.00200	173.48300
318.32421	-0.00200	173.47800
318.59522	-0.00200	173.48300
318.86524	-0.00300	173.47500
319.13525	-0.00400	173.47900
319.40427	-0.00400	173.48600
319.67528	-0.00400	173.47400
319.94530	-0.00300	173.47400
320.21532	-0.00400	173.47600
320.48433	-0.00200	173.48200
320.75535	-0.00300	173.48200
321.02436	-0.00600	173.47500
321.29538	-0.00400	173.47200
321.56439	-0.00300	173.48000
321.83541	-0.00400	173.48200
322.10442	-0.00400	173.47500
322.37544	-0.00500	173.47200
322.64445	-0.00500	173.47200
322.91547	-0.00300	173.47900
323.18448	-0.00500	173.47600
323.45550	-0.00400	173.47400
323.72452	-0.00500	173.47500
323.99553	-0.00500	173.47500
324.26455	-0.00500	173.47700
324.53556	-0.00300	173.47300
324.80458	-0.00400	173.47100
325.07459	-0.00500	173.47500
325.34461	-0.00200	173.48100
325.61462	-0.00300	173.47100
325.88464	-0.00400	173.46800
326.15466	-0.00400	173.47300
326.42467	-0.00500	173.47400
326.69469	-0.00500	173.47900
326.96470	-0.00100	173.47100
327.23672	-0.00200	173.46800
327.51473	-0.00100	173.47400
327.78475	-0.00300	173.47500
328.05476	0.00000	173.47100
328.32578	-0.00600	173.46700
328.59479	-0.00200	173.46300
328.86481	-0.00500	173.47500
329.13483	-0.00300	173.47400
329.40484	-0.00300	173.46900
329.67686	-0.00600	173.47200
329.95487	-0.00300	173.46600
330.22589	-0.00300	173.47100
330.49490	-0.00200	173.47300
330.76492	-0.00400	173.46400
331.03493	-0.00400	173.47000
331.30495	-0.00500	173.46600
331.57497	-0.00200	173.47000
331.84398	-0.00400	173.46600
332.11700	-0.00300	173.46400
332.39501	-0.00400	173.47100
332.66503	-0.00500	173.47200
332.93504	-0.00400	173.46600
333.20606	-0.00500	173.46400
333.47507	-0.00200	173.46600
333.74509	0.00000	173.46600
334.01511	-0.00300	173.46800
334.28512	-0.00500	173.46700
334.55514	-0.00300	173.45900
334.82615	-0.00500	173.46800
335.09517	-0.00400	173.46800
335.36618	-0.00500	173.46200
335.63520	-0.00300	173.46400
335.90521	-0.00300	173.46400
336.17523	-0.00500	173.46700
336.44624	-0.00600	173.46700
336.71626	-0.00100	173.45700
336.99528	0.00200	173.46200
337.26429	-0.00300	173.46200
337.53631	-0.00300	173.46200
337.81532	-0.00300	173.46000
338.08634	-0.00500	173.45900
338.35535	-0.00500	173.46100
338.62637	-0.00200	173.46600
338.89538	-0.00500	173.45900
339.16540	-0.00500	173.45700
339.43541	-0.00200	173.45400
339.70543	-0.00300	173.45900
339.97545	0.00000	173.46200
340.24546	-0.00100	173.45800
340.51548	-0.00300	173.45400
340.78449	-0.00200	173.46100
341.05551	-0.00300	173.45900
341.32452	-0.00500	173.45900
341.59454	-0.00300	173.45300
341.86455	-0.00200	173.45900
342.13657	-0.00500	173.46300
342.41658	-0.00100	173.45600
342.69460	-0.00300	173.45900
342.96462	-0.00200	173.45100
343.23663	-0.00200	173.45800
343.51465	-0.00100	173.45700
343.78466	-0.00400	173.45400
344.05468	-0.00400	173.45100
344.32569	-0.00500	173.45200
344.59471	-0.00100	173.46000
344.86473	-0.00400	173.45600
345.13474	-0.00300	173.45100
345.40476	-0.00500	173.45000
345.67477	-0.00200	173.45700
345.94479	-0.00300	173.45500
346.21480	-0.00500	173.44500
346.48482	-0.00700	173.44600
346.75383	-0.00400	173.45500
347.02485	-0.00200	173.45400
347.29486	-0.00100	173.45200
347.56488	0.00000	173.44700
347.83490	-0.00200	173.45000
348.10491	-0.00400	173.45800
348.37493	-0.00400	173.44800
348.64494	-0.00300	173.44600
348.91496	-0.00300	173.44500
349.18497	-0.00400	173.44700
349.45499	-0.00300	173.44800
349.72500	-0.00300	173.44600
349.99502	-0.00300	173.44200
350.26503	-0.00400	173.44600
350.53605	-0.00200	173.44800
350.81607	-0.00400	173.44800
351.09608	-0.00500	173.44200
351.37610	-0.00500	173.44500
351.65411	-0.00500	173.44500
351.92613	-0.00200	173.44900
352.19614	-0.00400	173.44000
352.47616	-0.00400	173.44000
352.75618	-0.00500	173.44100
353.03619	-0.00400	173.44300
353.31621	-0.00100	173.44300
353.59623	-0.00400	173.43900
353.87624	-0.00300	173.43900
354.15626	-0.00400	173.44600
354.43427	0.00100	173.44500
354.70429	-0.00400	173.43400
354.97630	-0.00500	173.43800
355.25432	-0.00300	173.44400
355.52433	-0.00300	173.44400
355.79435	-0.00500	173.43600
356.06637	-0.00200	173.43500
356.33438	-0.00500	173.44300
356.60440	-0.00300	173.44100
356.87441	-0.00400	173.43700
357.14443	-0.00400	173.43800
357.41444	-0.00500	173.43500
357.68646	-0.00300	173.43900
357.95447	-0.00300	173.43900
358.22649	-0.00400	173.43500
358.49450	-0.00400	173.43500
358.76652	-0.00200	173.43600
359.03654	0.00000	173.43900
359.31455	-0.00200	173.43600
359.58457	-0.00300	173.43100
359.85458	-0.00500	173.43000
360.12460	-0.00300	173.44100
360.39461	-0.00200	173.43500
360.66463	-0.00200	173.42800
360.93564	-0.00200	173.43000
361.20466	-0.00400	173.43600
361.47568	-0.00100	173.43500
361.74469	-0.00200	173.42900
362.01471	-0.00300	173.42400
362.28572	-0.00400	173.42900
362.55474	-0.00200	173.43000
362.82475	-0.00100	173.43000
363.09477	-0.00400	173.43000
363.36478	-0.00400	173.43100
363.63580	-0.00400	173.42700
363.91481	-0.00300	173.43100
364.18483	-0.00200	173.42700
364.45485	-0.00400	173.42200
364.72486	-0.00500	173.42800
364.99488	-0.00200	173.42800
365.26489	-0.00500	173.42700
365.53491	-0.00300	173.42500
365.80392	-0.00600	173.42500
366.07394	-0.00200	173.42700
366.34595	-0.00500	173.42600
366.61397	-0.00400	173.42100
366.88399	-0.00400	173.42100
367.15600	-0.00500	173.42500
367.43402	-0.00400	173.43200
367.70403	-0.00500	173.42500
367.97405	-0.00200	173.42300
368.24406	-0.00200	173.42100
368.51408	-0.00200	173.42400
368.78609	0.00000	173.42500
369.05411	-0.00400	173.41700
369.32612	-0.00400	173.41300
369.59614	-0.00400	173.42100
369.87616	-0.00400	173.41900
370.15617	-0.00500	173.41700
370.43619	-0.00100	173.41600
370.71420	0.00000	173.42100
370.98522	-0.00500	173.42200
371.25623	-0.00400	173.41800
371.53625	-0.00400	173.41300
371.81627	0.00000	173.41500
372.09628	-0.00200	173.41800
372.37630	-0.00500	173.41800
372.65631	-0.00500	173.41000
372.93633	-0.00200	173.41200
373.21635	-0.00400	173.41800
373.49636	-0.00100	173.41700
373.77438	-0.00400	173.40800
374.04539	-0.00200	173.40800
374.31641	-0.00500	173.41100
374.59643	-0.00400	173.41800
374.87644	0.00800	173.41500
375.15446	-0.00100	173.41000
375.42547	-0.00400	173.41100
375.69649	-0.00300	173.41400
375.97650	-0.00200	173.41400
376.25652	-0.00300	173.40800
376.53454	-0.00500	173.41100
376.80555	-0.00200	173.40900
377.07657	-0.00300	173.41100
377.35558	-0.00200	173.40600
377.63360	-0.00300	173.40100
377.90562	-0.00500	173.40500
378.17563	-0.00400	173.41400
378.45565	-0.00600	173.40900
378.73566	-0.00500	173.40100
379.01468	-0.00500	173.40800
379.28569	-0.00400	173.40600
379.55571	-0.00100	173.41000
379.83573	-0.00500	173.40700
380.11374	-0.00100	173.40300
380.38376	-0.00500	173.40500
380.65577	-0.00200	173.40700
380.93579	-0.00100	173.40200
381.21480	-0.00300	173.40300
381.48382	-0.00300	173.40100
381.75584	-0.00200	173.40500
382.03585	0.00100	173.40600
382.31387	0.00000	173.40000
382.58588	-0.00200	173.39700
382.85390	-0.00500	173.40300
383.12591	0.00000	173.40100
383.39393	-0.00300	173.40400
383.66594	-0.00500	173.39700
383.93596	-0.00200	173.40000
384.21598	-0.00400	173.40600
384.49599	-0.00500	173.40300
384.77601	-0.00300	173.39200
385.05602	-0.00200	173.39100
385.33604	-0.00200	173.39600
385.61406	-0.00300	173.39800
385.88307	-0.00300	173.39500
386.15409	-0.00100	173.39300
386.42610	-0.00300	173.39700
386.69412	-0.00400	173.40200
386.96313	-0.00500	173.39300
387.23615	-0.00300	173.39100
387.51617	-0.00300	173.39700
387.79418	-0.00100	173.39800
388.06620	-0.00200	173.39700
388.33421	-0.00400	173.39200
388.60323	-0.00100	173.39000
388.87424	-0.00100	173.39200
389.14326	-0.00500	173.39700
389.41427	-0.00200	173.39200
389.68529	-0.00400	173.38700
389.95430	-0.00300	173.39200
390.22332	0.00100	173.39500
390.49434	-0.00200	173.39000
390.76335	-0.00300	173.39100
391.03437	-0.00400	173.38900
391.30338	-0.00300	173.39400
391.57440	-0.00400	173.38800
391.84341	-0.00500	173.38600
392.11443	-0.00500	173.38500
392.38344	-0.00200	173.38800
392.65346	-0.00400	173.39200
392.92347	-0.00300	173.39100
393.19349	-0.00300	173.38400
393.46351	-0.00400	173.38400
393.73352	-0.00300	173.38500
394.00354	-0.00400	173.39100
394.27355	-0.00500	173.38300
394.54357	-0.00500	173.38200
394.81558	-0.00100	173.38700
395.09360	-0.00400	173.38700
395.36361	-0.00300	173.38800
395.63363	-0.00500	173.38200
395.90364	-0.00300	173.38600
396.17366	-0.00400	173.39100
396.44368	-0.00300	173.38200
396.71369	-0.00300	173.37900
396.98371	-0.00300	173.38000
397.25372	-0.00400	173.38800
397.52374	-0.00100	173.38300
397.79375	-0.00500	173.38000
398.06377	-0.00400	173.37700
398.33578	-0.00400	173.38400
398.61580	-0.00100	173.38300
398.89382	0.00200	173.38100
399.16383	0.00100	173.37700
399.43385	0.00000	173.37900
399.70386	-0.00300	173.38600
399.97388	-0.00300	173.37900
400.24389	-0.00200	173.37400
400.51391	-0.00200	173.37400
400.78392	-0.00100	173.37800
401.05394	-0.00300	173.38000
401.32395	-0.00300	173.37700
401.59597	-0.00500	173.37600
401.87399	-0.00500	173.37700
402.14400	-0.00300	173.38400
402.41602	-0.00200	173.37500
402.69603	-0.00400	173.37300
402.97605	-0.00400	173.37300
403.25606	-0.00200	173.37500
403.53608	-0.00600	173.37800
403.81610	-0.00300	173.37500
404.09611	-0.00200	173.37500
404.37613	-0.00200	173.37700
404.65615	-0.00500	173.37600
404.93616	-0.00300	173.36800
405.21618	-0.00200	173.36900
405.49619	0.00000	173.37200
405.77621	-0.00400	173.37700
406.05622	-0.00500	173.37300
406.33624	-0.00200	173.36800
406.61526	0.00000	173.36900
406.89527	-0.00400	173.37300
407.17529	-0.00200	173.36900
407.45531	-0.00400	173.36800
407.73532	-0.00500	173.36700
408.01334	-0.00400	173.37200
408.28335	-0.00100	173.37000
408.55537	-0.00100	173.36700
408.83338	-0.00200	173.36600
409.10340	-0.00200	173.36400
409.37341	-0.00200	173.37500
409.64343	-0.00500	173.36900
409.91545	-0.00300	173.36700
410.19346	-0.00500	173.36200
410.46348	-0.00400	173.36900
410.73349	-0.00200	173.36900
411.00351	-0.00100	173.36700
411.27352	-0.00100	173.36500
411.54354	-0.00200	173.36600
411.81355	-0.00400	173.36900
412.08357	-0.00100	173.36300
412.35359	-0.00200	173.36200
412.62360	-0.00300	173.36000
412.89362	-0.00400	173.36900
413.16563	-0.00200	173.36500
413.43365	-0.00600	173.36200
413.70366	-0.00500	173.36300
413.97368	-0.00500	173.36100
414.24569	-0.00400	173.36600
414.51371	-0.00200	173.36400
414.78472	-0.00300	173.35900
415.05374	-0.00100	173.36200
415.32576	-0.00300	173.36600
415.59377	-0.00500	173.36600
415.86579	-0.00300	173.36400
416.13380	0.00000	173.35700
416.40482	-0.00300	173.36500
416.67283	-0.00200	173.36100
416.94585	-0.00300	173.36100
417.21386	-0.00100	173.35900
417.48588	-0.00200	173.36100
417.75389	-0.00400	173.36000
418.02591	-0.00400	173.36300
418.29392	-0.00400	173.35400
418.56594	-0.00300	173.35800
418.83396	-0.00400	173.36300
419.10597	-0.00400	173.36500
419.37399	-0.00300	173.35900
419.64600	-0.00300	173.35700
419.91402	-0.00400	173.36200
420.18503	-0.00200	173.36500
420.45405	-0.00500	173.35900
420.72506	-0.00300	173.35500
420.99408	-0.00200	173.35400
421.26510	-0.00300	173.35900
421.53411	-0.00400	173.35800
421.80513	-0.00300	173.34800
422.07314	-0.00500	173.35700
422.34516	-0.00500	173.35700
422.61317	-0.00500	173.36400
422.88519	-0.00200	173.35800
423.15320	0.00000	173.35600
423.42522	-0.00200	173.35100
423.69323	-0.00100	173.35700
423.96525	-0.00200	173.35400
424.23326	-0.00300	173.35100
424.50528	-0.00500	173.35600
424.77330	-0.00500	173.35500
425.04531	0.00000	173.36100
425.31333	-0.00300	173.35500
425.58534	-0.00400	173.35400
425.85336	-0.00500	173.35800
426.12537	-0.00200	173.35800
426.39339	-0.00100	173.35600
426.66540	-0.00500	173.35000
426.93342	-0.00300	173.35300
427.20543	-0.00400	173.35700
427.47345	-0.00500	173.35600
427.74547	-0.00500	173.35200
428.01348	-0.00400	173.35300
428.28550	-0.00500	173.35000
428.55351	-0.00100	173.35800
428.82553	-0.00300	173.35600
429.09354	-0.00600	173.34900
429.36556	-0.00200	173.34900
429.63357	-0.00300	173.35400
429.90559	-0.00400	173.35300
430.17360	-0.00400	173.35300
430.44462	-0.00100	173.35200
430.71364	-0.00100	173.34800
430.98465	-0.00300	173.35600
431.25367	-0.00100	173.35400
431.52468	-0.00300	173.35100
431.79370	-0.00400	173.35300
432.06571	-0.00300	173.35300
432.33373	-0.00300	173.35100
432.60574	-0.00400	173.35400
432.87376	-0.00300	173.35000
433.14577	-0.00200	173.35000
433.41379	-0.00200	173.35700
433.68581	-0.00400	173.34900
433.95282	-0.00400	173.34500
434.22584	0.00000	173.34900
434.49385	-0.00300	173.35300
434.76587	-0.00300	173.34900
435.03388	-0.00300	173.35000
435.30390	-0.00300	173.34700
435.57291	-0.00200	173.35300
435.84393	-0.00300	173.35700
436.11394	-0.00500	173.34700
436.38296	-0.00200	173.34700
436.65398	0.00100	173.34700
436.92299	-0.00300	173.35300
437.19401	-0.00500	173.35000
437.46402	-0.00200	173.34700
437.73304	-0.00100	173.34500
438.00305	-0.00200	173.35200
438.27307	-0.00200	173.35600
438.54408	-0.00400	173.34600
438.81410	0.00000	173.34600
439.08311	-0.00400	173.34900
439.35413	-0.00400	173.35200
439.62514	-0.00500	173.34900
439.89316	-0.00500	173.34800
440.16318	-0.00300	173.34600
440.43319	-0.00500	173.34800
440.70321	-0.00400	173.35400
440.97322	-0.00100	173.35000
441.24324	-0.00300	173.34400
441.51325	-0.00200	173.34600
441.78327	-0.00400	173.35400
442.05528	-0.00200	173.35100
442.33330	-0.00500	173.34300
442.60532	-0.00300	173.34800
442.87333	-0.00300	173.35000
443.14335	-0.00600	173.35100
443.41536	-0.00500	173.34600
443.69338	-0.00600	173.35100
443.96339	-0.00500	173.34900
444.23341	-0.00100	173.35400
444.50442	0.00000	173.34700
444.77344	-0.00200	173.34400
445.04446	-0.00200	173.34400
445.31347	-0.00100	173.35400
445.58549	-0.00200	173.35000
445.85350	-0.00600	173.35100
446.12352	-0.00500	173.34500
446.39353	-0.00300	173.35400
446.66355	-0.00400	173.35400
446.93356	-0.00500	173.34500
447.20458	-0.00400	173.34300
447.47459	-0.00500	173.35100
447.75461	-0.00300	173.34800
448.03463	-0.00500	173.34600
448.31464	0.00000	173.34500
448.59366	-0.00200	173.34400
448.86367	-0.00300	173.34800
449.13469	-0.00300	173.35400
449.41470	0.00000	173.34800
449.69472	-0.00100	173.34900
449.97474	-0.00300	173.35200
450.25475	-0.00500	173.34800
450.53377	-0.00200	173.34800
450.80378	-0.00200	173.34200
451.07480	-0.00400	173.34900
451.35482	-0.00200	173.35400
451.63383	0.00000	173.35300
451.90485	-0.00300	173.34900
452.17486	-0.00500	173.34900
452.45488	-0.00500	173.35200
452.73490	-0.00300	173.35600
453.01491	-0.00400	173.34400
453.29493	-0.00300	173.34400
453.57494	-0.00400	173.35500
453.85496	-0.00500	173.36100
454.13498	-0.00300	173.35200
454.41499	-0.00300	173.34900
454.69501	-0.00300	173.35200
454.97502	0.00100	173.35600
455.25504	-0.00100	173.35000
455.53506	-0.00100	173.35100
455.81507	-0.00400	173.35100
456.09509	0.00000	173.35400
456.37510	-0.00500	173.34700
456.65512	-0.00300	173.34300
456.93514	-0.00500	173.34900
457.21515	-0.00200	173.35200
457.49517	-0.00200	173.35500
457.77518	-0.00100	173.34800
458.05520	-0.00200	173.35000
458.33522	-0.00200	173.35300
458.61523	-0.00300	173.35800
458.89525	-0.00300	173.35200
459.17526	-0.00500	173.34600
459.45528	-0.00100	173.35300
459.73530	-0.00200	173.35700
460.01431	0.00100	173.35300
460.29533	-0.00600	173.34800
460.57534	-0.00300	173.35100
460.85536	-0.00100	173.35300
461.13538	-0.00200	173.35800
461.41539	-0.00200	173.35400
461.69441	-0.00300	173.35200
461.97442	-0.00500	173.35700
462.25444	-0.00200	173.35800
462.53546	-0.00500	173.35400
462.81547	-0.00400	173.35000
463.09449	-0.00400	173.35000
463.37450	-0.00200	173.35700
463.65452	-0.00400	173.35700
463.93454	-0.00200	173.34900
464.21455	-0.00300	173.35000
464.49457	-0.00100	173.35600
464.77458	-0.00400	173.35900
465.05460	-0.00300	173.35400
465.33462	-0.00100	173.35200
465.61463	-0.00500	173.35800
465.89465	-0.00100	173.35800
466.17466	-0.00300	173.35000
466.45468	-0.00200	173.35200
466.73470	-0.00300	173.35300
467.01471	-0.00100	173.36100
467.29473	0.00000	173.35500
467.57474	-0.00300	173.35700
467.85476	-0.00300	173.35600
468.13478	-0.00300	173.35800
468.41479	-0.00300	173.35700
468.69481	-0.00500	173.35600
468.97482	0.00100	173.35900
469.25484	-0.00600	173.36200
469.53486	0.00100	173.36100
469.81487	-0.00500	173.35300
470.09489	-0.00400	173.35300
470.37490	-0.00100	173.36000
470.65492	-0.00100	173.36500
470.93494	-0.00500	173.35800
471.21495	-0.00200	173.35600
471.49497	-0.00300	173.35700
471.77498	0.00000	173.36100
472.05500	0.00100	173.36300
472.33502	-0.00500	173.35900
472.61503	-0.00500	173.36000
472.89505	-0.00400	173.35500
473.17506	-0.00200	173.36100
473.45508	-0.00300	173.35900
473.73510	-0.00100	173.35500
474.01511	-0.00500	173.36400
474.29513	-0.00100	173.36600
474.57414	-0.00300	173.35900
474.85416	-0.00300	173.35700
475.13518	-0.00400	173.36500
475.41419	-0.00500	173.36600
475.69521	-0.00500	173.36200
475.97522	-0.00200	173.36000
476.25524	-0.00100	173.36500
476.53526	-0.00100	173.36700
476.81427	-0.00400	173.36800
477.09429	-0.00500	173.35600
477.37430	-0.00500	173.35900
477.65432	-0.00100	173.36900
477.93434	-0.00100	173.36500
478.21435	0.00100	173.35900
478.49437	-0.00200	173.35900
478.77438	-0.00200	173.36300
479.05440	-0.00300	173.36500
479.33442	-0.00300	173.36000
479.61443	-0.00200	173.36000
479.89445	-0.00400	173.36600
480.17446	-0.00400	173.37100
480.45448	0.00100	173.36500
480.73450	-0.00500	173.36400
481.01451	-0.00400	173.36200
481.29453	-0.00200	173.37000
481.57454	-0.00500	173.36700
481.85456	-0.00400	173.36700
482.13458	-0.00400	173.36800
482.41459	-0.00400	173.37000
482.69461	-0.00500	173.37000
482.97463	-0.00300	173.36700
483.25464	-0.00200	173.36800
483.53466	-0.00400	173.37000
483.81467	0.00100	173.37200
484.09469	-0.00300	173.36900
484.37470	-0.00100	173.36800
484.65472	-0.00500	173.36600
484.93474	-0.00400	173.37400
485.21475	-0.00400	173.37400
485.49477	0.01300	173.37300
485.77479	-0.00500	173.37000
486.05480	-0.00500	173.37400
486.33382	-0.00300	173.36900
486.60383	-0.00300	173.37200
486.87485	0.00000	173.36800
487.15486	0.00000	173.37600
487.43488	0.00100	173.37700
487.71490	-0.00400	173.37600
487.99491	-0.00200	173.36900
488.27493	-0.00300	173.37400
488.55494	-0.00500	173.37900
488.83396	-0.00200	173.37600
489.11398	-0.00500	173.37400
489.39499	-0.00100	173.37300
489.67501	0.00100	173.37600
489.95402	-0.00300	173.37600
490.23404	-0.00400	173.37600
490.51406	-0.00400	173.37600
490.79507	-0.00200	173.37800
491.07409	-0.00200	173.38300
491.35410	-0.00300	173.37900
491.63412	-0.00300	173.38000
491.91414	-0.00400	173.38000
492.19415	-0.00400	173.38400
492.47417	-0.00500	173.38000
492.75418	0.00000	173.37200
493.03420	-0.00100	173.37400
493.31422	-0.00300	173.38100
493.59423	-0.00200	173.37900
493.87425	-0.00600	173.38100
494.15426	-0.00400	173.37900
494.43428	-0.00500	173.38300
494.71430	0.00000	173.38100
494.99431	-0.00100	173.38300
495.27433	-0.00400	173.38100
495.55434	-0.00100	173.38500
495.83436	-0.00500	173.38800
496.11438	-0.00200	173.38500
496.39439	-0.00400	173.37900
496.67441	-0.00300	173.38800
496.95442	-0.00300	173.38500
497.23444	-0.00200	173.38700
497.51446	0.00000	173.38600
497.79447	0.00000	173.38600
498.07449	0.00100	173.39000
498.35450	-0.00300	173.38700
498.63452	-0.00100	173.38300
498.91454	-0.00300	173.37900
499.19455	-0.00500	173.38900
499.47457	-0.00400	173.39200
499.75458	-0.00400	173.38200
500.03460	-0.00500	173.38300
500.31462	-0.00200	173.39500
500.59463	-0.00500	173.39500
500.87465	-0.00400	173.39400
501.15466	-0.00300	173.39000
501.43468	-0.00400	173.38700
501.71470	0.00000	173.39200
501.99471	-0.00300	173.39400
502.27473	-0.00600	173.39400
502.55374	-0.00300	173.39200
502.83476	-0.00200	173.39100
503.11478	-0.00100	173.39800
503.39479	-0.00300	173.39500
503.67481	-0.00200	173.39600
503.95382	-0.00200	173.40100
504.23484	-0.00200	173.40100
504.51386	0.00000	173.39400
504.79387	-0.00100	173.39400
505.07389	-0.00100	173.39700
505.35391	-0.00400	173.40000
505.63392	-0.00400	173.39500
505.91394	-0.00300	173.39300
506.19395	-0.00500	173.39600
506.47397	-0.00100	173.40000
506.75398	-0.00200	173.40000
507.03400	-0.00200	173.39900
507.31402	-0.00200	173.39300
507.59403	-0.00200	173.39900
507.87405	-0.00400	173.40500
508.15407	-0.00400	173.39900
508.43408	-0.00500	173.39600
508.71410	-0.00300	173.39900
508.99411	-0.00200	173.40300
509.27413	-0.00100	173.40000
509.55414	-0.00300	173.39800
509.83416	-0.00200	173.39900
510.11418	0.00200	173.40100
510.39419	-0.00200	173.40600
510.67421	-0.00500	173.40000
510.95423	-0.00300	173.40200
511.23424	0.00000	173.40500
511.51426	-0.00200	173.40200
511.79427	-0.00200	173.39900
512.07429	-0.00200	173.40500
512.35431	-0.00500	173.40900
512.63432	-0.00500	173.41000
512.91434	-0.00300	173.40600
513.19435	0.00000	173.40000
513.47437	-0.00400	173.41000
513.75438	-0.00500	173.41500
514.03440	-0.00300	173.40900
514.31442	0.00000	173.40700
514.59443	-0.00200	173.40300
514.87445	-0.00300	173.40700
515.15447	-0.00400	173.41000
515.43448	-0.00500	173.40400
515.71450	-0.00500	173.40700
515.99451	-0.00500	173.41000
516.27353	0.00100	173.41100
516.55354	-0.00200	173.40900
516.83456	-0.00300	173.40700
517.11458	-0.00400	173.41200
517.39459	-0.00300	173.41500
517.67361	-0.00200	173.41700
517.95363	-0.00300	173.41200
518.23364	0.00000	173.41300
518.51366	-0.00100	173.41500
518.79367	-0.00400	173.41700
519.07369	-0.00500	173.41700
519.35370	-0.00300	173.41300
519.63372	-0.00300	173.41400
519.91374	-0.00100	173.42100
520.19375	-0.00300	173.41100
520.47377	-0.00300	173.41100
520.75379	-0.00500	173.41900
521.03380	-0.00100	173.42000
521.31382	0.00000	173.41900
521.59283	-0.00400	173.41400
521.86385	-0.00200	173.41900
522.13386	0.00000	173.42300
522.41388	-0.00400	173.42100
522.69390	-0.00200	173.41600
522.97391	-0.00200	173.41700
523.25393	-0.00100	173.42600
523.53394	-0.00200	173.42300
523.81396	-0.00400	173.42000
524.09398	-0.00400	173.41900
524.37399	-0.00100	173.42200
524.65401	-0.00400	173.42900
524.93402	-0.00100	173.42200
525.21404	-0.00200	173.42300
525.49406	-0.00100	173.42200
525.77407	-0.00400	173.42800
526.05409	-0.00300	173.42600
526.33411	-0.00300	173.42200
526.61412	-0.00300	173.42300
526.89414	0.00000	173.42700
527.17415	0.00100	173.42600
527.45417	-0.00500	173.42800
527.73419	-0.00400	173.42400
528.01420	-0.00200	173.43100
528.29422	-0.00300	173.42800
528.57423	-0.00200	173.42700
528.85425	-0.00200	173.42400
529.13426	-0.00400	173.42900
529.41428	-0.00200	173.43500
529.69330	-0.00200	173.43000
529.97431	-0.00100	173.42700
530.25433	-0.00400	173.43000
530.53435	-0.00200	173.43800
530.81336	-0.00200	173.43300
531.09338	-0.00300	173.43600
531.37439	-0.00200	173.43000
531.65341	0.00000	173.43300
531.93342	-0.00300	173.43400
532.21344	-0.00200	173.42900
532.49346	-0.00200	173.43300
532.77447	-0.00400	173.43200
533.05349	0.00300	173.43900
533.33351	-0.00400	173.43300
533.61352	-0.00400	173.43500
533.89354	-0.00300	173.43900
534.17355	-0.00600	173.44200
534.45357	-0.00100	173.43900
534.73358	-0.00300	173.43300
535.01360	-0.00100	173.43300
535.29362	-0.00300	173.44200
535.57363	-0.00100	173.44000
535.85365	-0.00100	173.43700
536.13367	-0.00100	173.43800
536.41368	-0.00100	173.44000
536.69370	-0.00500	173.44300
536.97371	0.00100	173.44500
537.25373	-0.00200	173.43800
537.53374	-0.00100	173.44800
537.81376	-0.00300	173.44700
538.09378	-0.00400	173.44800
538.37379	-0.00300	173.44000
538.65381	-0.00100	173.44000
538.93383	-0.00500	173.44900
539.21384	-0.00400	173.44500
539.49386	-0.00300	173.44300
539.77387	-0.00100	173.44300
540.05389	-0.00400	173.44700
540.33391	0.00100	173.44800
540.61392	-0.00500	173.44000
540.89394	-0.00200	173.44500
541.17395	-0.00100	173.44700
541.45397	-0.00100	173.45100
541.73399	-0.00100	173.44500
542.01400	-0.00400	173.44200
542.29402	-0.00200	173.44700
542.57403	-0.00500	173.45200
542.85405	-0.00100	173.44900
543.13407	-0.00300	173.44800
543.41408	-0.00500	173.45000
543.69310	-0.00500	173.45100
543.97411	-0.00100	173.45100
544.25413	-0.00100	173.44400
544.53315	-0.00300	173.44300
544.81416	0.00200	173.45200
545.09318	-0.00200	173.45300
545.37319	-0.00400	173.45100
545.65321	-0.00400	173.45100
545.93323	0.00100	173.45300
546.21324	-0.00300	173.45400
546.49326	-0.00200	173.45000
546.77327	-0.00100	173.45100
547.05329	-0.00100	173.45300
547.33331	-0.00100	173.45700
547.61332	-0.00400	173.45800
547.89334	-0.00100	173.44900
548.17335	-0.00500	173.45200
548.45337	-0.00300	173.45800
548.73339	-0.00300	173.45600
549.01340	-0.00300	173.45000
549.29342	-0.00300	173.44900
549.57343	-0.00400	173.46100
549.85345	-0.00200	173.46100
550.13347	-0.00300	173.45600
550.41348	-0.00400	173.45200
550.69350	-0.00200	173.45900
550.97351	-0.00300	173.46500
551.25353	-0.00400	173.45800
551.53355	-0.00100	173.45800
551.81356	-0.00500	173.46100
552.09358	-0.00200	173.46200
552.37359	-0.00500	173.46400
552.65361	-0.00400	173.45500
552.93363	-0.00200	173.45900
553.21364	-0.00200	173.46200
553.49366	-0.00100	173.46600
553.77367	-0.00200	173.45900
554.05369	-0.00100	173.45500
554.33371	-0.00200	173.46400
554.61372	-0.00500	173.46600
554.89374	-0.00400	173.46100
555.17375	-0.00200	173.46200
555.45377	-0.00200	173.46300
555.73379	-0.00200	173.46200
556.01380	-0.00400	173.46400
556.29382	-0.00100	173.46000
556.57383	-0.00200	173.46100
556.85385	0.00000	173.46700
557.13387	-0.00300	173.46700
557.41388	-0.00300	173.46400
557.69290	-0.00200	173.46200
557.97291	-0.00100	173.46800
558.25393	-0.00300	173.46800
558.53295	-0.00400	173.46400
558.81296	-0.00200	173.46300
559.09298	0.00000	173.46700
559.37299	-0.00200	173.47400
559.65301	-0.00100	173.46900
559.93303	-0.00500	173.46400
560.21304	-0.00500	173.46600
560.49306	-0.00100	173.47000
560.77307	-0.00100	173.46900
561.05309	-0.00100	173.46600
561.33311	-0.00300	173.47100
561.61312	-0.00200	173.47200
561.89314	-0.00200	173.47300
562.17315	-0.00400	173.47100
562.45317	-0.00100	173.46500
562.73319	-0.00300	173.46900
563.01320	-0.00200	173.47400
563.29322	-0.00200	173.47000
563.57323	-0.00300	173.46700
563.85325	-0.00300	173.47000
564.13327	-0.00200	173.47600
564.41328	-0.00500	173.47300
564.69330	-0.00300	173.47400
564.97331	0.00100	173.47100
565.25333	-0.00100	173.47600
565.53335	-0.00100	173.47800
565.81336	0.00100	173.47100
566.09338	-0.00300	173.47300
566.37339	-0.00200	173.47100
566.65341	-0.00200	173.47900
566.93343	-0.00300	173.47200
567.21344	-0.00300	173.47000
567.49346	0.00000	173.47600
567.77347	-0.00200	173.47900
568.05349	-0.00300	173.47600
568.33351	-0.00300	173.47200
568.61352	-0.00100	173.47400
568.89354	-0.00400	173.47900
569.17355	-0.00200	173.47600
569.45357	-0.00400	173.47400
569.73359	-0.00100	173.47500
570.01360	0.00000	173.48200
570.29262	-0.00300	173.48600
570.56163	-0.00300	173.47200
570.83165	-0.00300	173.47500
571.10167	0.00000	173.48100
571.37368	-0.00200	173.48300
571.65370	-0.00100	173.48100
571.93271	-0.02100	173.47300
572.21273	0.00100	173.47900
572.49374	-0.00500	173.48100
572.77276	-0.00300	173.48200
573.05278	-0.00300	173.47700
573.33279	-0.00300	173.47200
573.61281	-0.00100	173.48400
573.89283	-0.00400	173.48800
574.17284	-0.00100	173.47700
574.45286	-0.00400	173.48000
574.73287	-0.00200	173.48100
575.01289	-0.00500	173.48500
575.29290	-0.00300	173.47800
575.57292	-0.00400	173.47200
575.85294	-0.00300	173.47700
576.13295	-0.00200	173.48300
576.41297	-0.00300	173.48500
576.69299	-0.00300	173.47700
576.97300	0.00000	173.48100
577.25302	-0.00300	173.48200
577.53303	-0.00300	173.48100
577.81305	-0.00300	173.48000
578.09307	-0.00500	173.47800
578.37308	-0.00200	173.48700
578.65310	-0.00100	173.49000
578.93311	-0.00300	173.47900
579.21313	-0.00100	173.47900
579.49314	-0.00200	173.48600
579.77316	-0.00200	173.48700
580.05318	-0.00300	173.48400
580.33319	-0.00200	173.47600
580.61321	-0.00200	173.48000
580.89323	0.00000	173.48400
581.17324	-0.00300	173.48500
581.45326	-0.00100	173.47900
581.73327	-0.00500	173.48100
582.01329	0.00000	173.48300
582.29330	-0.00200	173.48500
582.57332	-0.00400	173.48300
582.85334	-0.00300	173.47800
583.13335	-0.00300	173.48300
583.41337	-0.00200	173.48800
583.69339	-0.00300	173.48200
583.97340	-0.00100	173.47800
584.25342	-0.00200	173.48200
584.53343	-0.00300	173.48800
584.81345	-0.00300	173.48300
585.09347	0.00500	173.48500
585.37348	-0.00500	173.48100
585.65350	-0.00100	173.48900
585.93351	-0.00100	173.48600
586.21253	-0.00300	173.48900
586.49255	0.00100	173.48300
586.77356	-0.00400	173.48600
587.05258	-0.00200	173.48600
587.33259	0.00100	173.48400
587.61261	-0.00200	173.48200
587.89263	-0.00500	173.49000
588.17264	-0.00300	173.49500
588.45366	-0.00400	173.48700
588.73267	-0.00200	173.48500
589.01269	-0.00400	173.48300
589.29271	-0.00200	173.49200
589.57272	-0.00100	173.48800
589.85274	-0.00300	173.48600
590.13275	-0.00300	173.48400
590.41277	-0.00300	173.48700
590.69279	0.00100	173.49500
590.97280	-0.00200	173.48500
591.25282	-0.00100	173.48700
591.53183	0.00000	173.48200
591.80085	0.00000	173.49000
592.07287	-0.00300	173.48800
592.35288	-0.00200	173.47700
592.63290	-0.00500	173.48500
592.91291	-0.00200	173.48800
593.19293	0.00000	173.49100
593.47295	-0.00100	173.48400
593.75296	-0.00200	173.48400
594.03298	-0.00100	173.49000
594.31299	0.00300	173.48600
594.59301	-0.00300	173.48200
594.87302	-0.00100	173.48400
595.15304	-0.00400	173.48700
595.43306	-0.00300	173.48900
595.71307	-0.00200	173.49000
595.99309	-0.00500	173.48600
596.27311	-0.00300	173.48800
596.55312	-0.00300	173.48800
596.83314	-0.00300	173.49100
597.11315	-0.00200	173.48700
597.39317	-0.00200	173.48100
597.67318	0.00200	173.48700
597.95320	-0.00400	173.48800
598.23322	-0.00300	173.48900
598.51323	-0.00400	173.48200
598.79225	-0.00100	173.48400
599.07227	0.00000	173.49100
599.35228	-0.00200	173.48600
599.63330	-0.00300	173.48400
599.91231	-0.00500	173.48800
600.19233	-0.00200	173.49300
600.47234	-0.00300	173.48600
600.75336	0.00100	173.48500
601.03338	0.00100	173.48100
601.31239	-0.00200	173.48900
601.59241	-0.00500	173.48200
601.87243	-0.00200	173.48500
602.15244	-0.00200	173.48600
602.43246	-0.00300	173.48600
602.71247	-0.00200	173.48300
602.99249	-0.00200	173.48100
603.27250	-0.00400	173.48400
603.55252	-0.00400	173.47900
603.83254	-0.00300	173.48100
604.11255	-0.00300	173.48000
604.39257	-0.00400	173.48400
604.67259	-0.00400	173.48500
604.95260	-0.00100	173.48000
605.23262	-0.00300	173.48000
